This opacity file has 1 materials:
Material 1 has ID number 10001
=========================================
For Material 1 with ID number 10001
=========================================
Density grid
1	1.0000000e-02
2	1.0000000e-01
3	1.0000000e+00
4	1.0000000e+01
Temperature grid
1	1.0000000e-03
2	1.0000000e-02
3	1.0000000e-01
4	1.0000000e+00
5	1.0000000e+01
6	1.0000000e+02
Frequency grid
1	1.0000000e-05
2	3.6580000e-04
3	1.2553000e-03
4	3.0343000e-03
5	6.5923000e-03
6	1.1929300e-02
7	1.5487300e-02
8	1.7266300e-02
9	1.7800000e-02
10	1.8076000e-02
11	1.8766000e-02
12	2.0146000e-02
13	2.2906000e-02
14	2.7046000e-02
15	2.9806000e-02
16	3.1186000e-02
17	3.1600000e-02
18	3.2092000e-02
19	3.3322000e-02
20	3.5782000e-02
21	4.0702000e-02
22	4.8082000e-02
23	5.3002000e-02
24	5.5462000e-02
25	5.6200000e-02
26	5.6576000e-02
27	5.7516000e-02
28	5.9396000e-02
29	6.3156000e-02
30	6.8796000e-02
31	7.2556000e-02
32	7.4436000e-02
33	7.5000000e-02
34	7.5500000e-02
35	7.6750000e-02
36	7.9250000e-02
37	8.4250000e-02
38	9.1750000e-02
39	9.6750000e-02
40	9.9250000e-02
41	1.0000000e-01
42	1.0066000e-01
43	1.0231000e-01
44	1.0561000e-01
45	1.1221000e-01
46	1.2211000e-01
47	1.2871000e-01
48	1.3201000e-01
49	1.3300000e-01
50	1.3390000e-01
51	1.3615000e-01
52	1.4065000e-01
53	1.4965000e-01
54	1.6315000e-01
55	1.7215000e-01
56	1.7665000e-01
57	1.7800000e-01
58	1.7918000e-01
59	1.8213000e-01
60	1.8803000e-01
61	1.9983000e-01
62	2.1753000e-01
63	2.2933000e-01
64	2.3523000e-01
65	2.3700000e-01
66	2.3858000e-01
67	2.4253000e-01
68	2.5043000e-01
69	2.6623000e-01
70	2.8993000e-01
71	3.0573000e-01
72	3.1363000e-01
73	3.1600000e-01
74	3.1812000e-01
75	3.2342000e-01
76	3.3402000e-01
77	3.5522000e-01
78	3.8702000e-01
79	4.0822000e-01
80	4.1882000e-01
81	4.2200000e-01
82	4.2480000e-01
83	4.3180000e-01
84	4.4580000e-01
85	4.7380000e-01
86	5.1580000e-01
87	5.4380000e-01
88	5.5780000e-01
89	5.6200000e-01
90	5.6576000e-01
91	5.7516000e-01
92	5.9396000e-01
93	6.3156000e-01
94	6.8796000e-01
95	7.2556000e-01
96	7.4436000e-01
97	7.5000000e-01
98	7.5500000e-01
99	7.6750000e-01
100	7.9250000e-01
101	8.4250000e-01
102	9.1750000e-01
103	9.6750000e-01
104	9.9250000e-01
105	1.0000000e+00
106	1.0066000e+00
107	1.0231000e+00
108	1.0561000e+00
109	1.1221000e+00
110	1.2211000e+00
111	1.2871000e+00
112	1.3201000e+00
113	1.3300000e+00
114	1.3390000e+00
115	1.3615000e+00
116	1.4065000e+00
117	1.4965000e+00
118	1.6315000e+00
119	1.7215000e+00
120	1.7665000e+00
121	1.7800000e+00
122	1.7918000e+00
123	1.8213000e+00
124	1.8803000e+00
125	1.9983000e+00
126	2.1753000e+00
127	2.2933000e+00
128	2.3523000e+00
129	2.3700000e+00
130	2.3858000e+00
131	2.4253000e+00
132	2.5043000e+00
133	2.6623000e+00
134	2.8993000e+00
135	3.0573000e+00
136	3.1363000e+00
137	3.1600000e+00
138	3.1812000e+00
139	3.2342000e+00
140	3.3402000e+00
141	3.5522000e+00
142	3.8702000e+00
143	4.0822000e+00
144	4.1882000e+00
145	4.2200000e+00
146	4.2480000e+00
147	4.3180000e+00
148	4.4580000e+00
149	4.7380000e+00
150	5.1580000e+00
151	5.4380000e+00
152	5.5780000e+00
153	5.6200000e+00
154	5.6576000e+00
155	5.7516000e+00
156	5.9396000e+00
157	6.3156000e+00
158	6.8796000e+00
159	7.2556000e+00
160	7.4436000e+00
161	7.5000000e+00
162	7.5500000e+00
163	7.6750000e+00
164	7.9250000e+00
165	8.4250000e+00
166	9.1750000e+00
167	9.6750000e+00
168	9.9250000e+00
169	1.0000000e+01
170	1.0066000e+01
171	1.0231000e+01
172	1.0561000e+01
173	1.1221000e+01
174	1.2211000e+01
175	1.2871000e+01
176	1.3201000e+01
177	1.3300000e+01
178	1.3390000e+01
179	1.3615000e+01
180	1.4065000e+01
181	1.4965000e+01
182	1.6315000e+01
183	1.7215000e+01
184	1.7665000e+01
185	1.7800000e+01
186	1.7918000e+01
187	1.8213000e+01
188	1.8803000e+01
189	1.9983000e+01
190	2.1753000e+01
191	2.2933000e+01
192	2.3523000e+01
193	2.3700000e+01
194	2.3858000e+01
195	2.4253000e+01
196	2.5043000e+01
197	2.6623000e+01
198	2.8993000e+01
199	3.0573000e+01
200	3.1363000e+01
201	3.1600000e+01
202	3.1812000e+01
203	3.2342000e+01
204	3.3402000e+01
205	3.5522000e+01
206	3.8702000e+01
207	4.0822000e+01
208	4.1882000e+01
209	4.2200000e+01
210	4.2480000e+01
211	4.3180000e+01
212	4.4580000e+01
213	4.7380000e+01
214	5.1580000e+01
215	5.4380000e+01
216	5.5780000e+01
217	5.6200000e+01
218	5.6576000e+01
219	5.7516000e+01
220	5.9396000e+01
221	6.3156000e+01
222	6.8796000e+01
223	7.2556000e+01
224	7.4436000e+01
225	7.5000000e+01
226	7.5500000e+01
227	7.6750000e+01
228	7.9250000e+01
229	8.4250000e+01
230	9.1750000e+01
231	9.6750000e+01
232	9.9250000e+01
233	1.0000000e+02
234	1.0066000e+02
235	1.0231000e+02
236	1.0561000e+02
237	1.1221000e+02
238	1.2211000e+02
239	1.2871000e+02
240	1.3201000e+02
241	1.3300000e+02
242	1.3390000e+02
243	1.3615000e+02
244	1.4065000e+02
245	1.4965000e+02
246	1.6315000e+02
247	1.7215000e+02
248	1.7665000e+02
249	1.7800000e+02
250	1.7918000e+02
251	1.8213000e+02
252	1.8803000e+02
253	1.9983000e+02
254	2.1753000e+02
255	2.2933000e+02
256	2.3523000e+02
257	2.3700000e+02
258	2.3826000e+02
259	2.4141000e+02
260	2.4771000e+02
261	2.6031000e+02
262	2.7921000e+02
263	2.9181000e+02
264	2.9811000e+02
265	3.0000000e+02

Enter 0 or q to quit.
Please select a material from 1 to 1
Please enter a density from 1.0000000e-02 to 1.0000000e+01
Please select a temperature from 1.0000000e-03 to 1.0000000e+02
Choose your opacity type:
1: Rosseland Absorption (Gray), 2: Planck Absorption (Gray)
3: Rosseland Absorption (MG),   4: Planck Absorption (MG)
5: Rosseland Total (Gray)
The Gray Rosseland Absorption Opacity for
material 0 Id(10001) at density 1.0000000e-01, temperature 1.0000000e+00 is 5.1192293e-02
Enter 0 or q to quit.
Please select a material from 1 to 1
Please enter a density from 1.0000000e-02 to 1.0000000e+01
Please select a temperature from 1.0000000e-03 to 1.0000000e+02
Choose your opacity type:
1: Rosseland Absorption (Gray), 2: Planck Absorption (Gray)
3: Rosseland Absorption (MG),   4: Planck Absorption (MG)
5: Rosseland Total (Gray)
The Gray Planck Absorption Opacity for
material 0 Id(10001) at density 1.0000000e-01, temperature 1.0000000e+00 is 7.7177689e-02
Enter 0 or q to quit.
Please select a material from 1 to 1
Please enter a density from 1.0000000e-02 to 1.0000000e+01
Please select a temperature from 1.0000000e-03 to 1.0000000e+02
Ending session.
